Filename:	Stare_213_20221213_04.hpl
System ID:	213
Number of gates:	333
Range gate length (m):	30.0
Gate length (pts):	10
Pulses/ray:	10000
No. of rays in file:	1
Scan type:	Stare
Focus range:	65535
Start time:	20221213 04:00:24.32
Resolution (m/s):	0.0382
Altitude of measurement (center of gate) = (range gate + 0.5) * Gate length
Data line 1: Decimal time (hours)  Azimuth (degrees)  Elevation (degrees) Pitch (degrees) Roll (degrees)
f9.6,1x,f6.2,1x,f6.2
Data line 2: Range Gate  Doppler (m/s)  Intensity (SNR + 1)  Beta (m-1 sr-1)
i3,1x,f6.4,1x,f8.6,1x,e12.6 - repeat for no. gates
**** Instrument spectral width = 7.796967
4.00648333 359.99  90.01 -0.01 -0.40
  0 -0.1147 1.155508  8.757579E-6 0.0382 
  1 -2.2932 0.958382 -2.347047E-6 0.0382 
  2 16.1672 1.030337  1.714464E-6 1.5670 
  3 0.1529 1.100692  5.706656E-6 6.2299 
  4 -0.1911 1.104814  5.961256E-6 5.8095 
  5 -0.1911 1.128393  7.333278E-6 5.9624 
  6 0.1911 1.170483  9.785261E-6 6.0388 
  7 0.8408 1.243432  1.405085E-5 6.0770 
  8 0.3822 1.577183  3.352460E-5 6.4593 
  9 0.1147 4.258299  1.905691E-4 5.9624 
 10 0.1147 5.470746  2.634722E-4 5.8859 
 11 -0.0382 2.832631  1.088927E-4 6.8032 
 12 0.3058 1.189064  1.133366E-5 6.5357 
 13 0.3058 2.742963  1.054754E-4 6.0770 
 14 0.2675 4.008646  1.839038E-4 5.8477 
 15 0.1147 2.182858  7.307294E-5 6.4593 
 16 0.3058 1.047195  2.948258E-6 6.1917 
 17 0.2293 1.019314  1.220742E-6 6.3828 
 18 0.4969 1.004595  2.939726E-7 5.6566 
 19 -0.3822 1.007825  5.070614E-7 5.3126 
 20 -0.7644 1.005978  3.924916E-7 6.7268 
 21 -0.2293 0.995955 -2.692071E-7 5.3509 
 22 -0.1911 0.995080 -3.321063E-7 5.0833 
 23 -0.7262 1.005453  3.734878E-7 6.9179 
 24 0.0764 1.004604  3.200395E-7 5.8859 
 25 0.3822 1.049400  3.487090E-6 5.9242 
 26 0.5351 1.071285  5.111265E-6 6.1153 
 27 0.6880 1.021425  1.560982E-6 6.3064 
 28 -0.1529 0.999989 -8.310522E-10 9.4787 
 29 0.1529 1.018374  1.383488E-6 6.2299 
 30 0.5351 1.125912  9.642231E-6 6.0006 
 31 0.5733 1.207434  1.616022E-5 5.9242 
 32 0.4586 1.066866  5.300757E-6 6.3828 
 33 0.1529 0.996982 -2.435405E-7 6.4210 
 34 0.3822 0.995299 -3.861493E-7 4.5482 
 35 -8.6378 0.990889 -7.620556E-7 4.5865 
 36 -2.6372 0.994148 -4.984850E-7 3.6692 
 37 -18.1929 0.999862 -1.197424E-8 11.4279 
 38 18.8045 0.994809 -4.588461E-7 7.3765 
 39 1.2613 0.996885 -2.805538E-7 3.6692 
 40 4.0896 0.990089 -9.096137E-7 3.8220 
 41 1.2613 0.993849 -5.753469E-7 7.8352 
 42 0.8026 0.998500 -1.430516E-7 8.4467 
 43 -6.6886 0.995898 -3.986825E-7 11.5808 
 44 -0.0382 0.995394 -4.563644E-7 5.1598 
 45 1.9492 1.000475  4.801790E-8 12.2688 
 46 0.1147 0.994612 -5.548938E-7 4.8158 
 47 -2.7901 0.992310 -8.075817E-7 5.5420 
 48 -0.4204 0.995257 -5.078588E-7 4.7393 
 49 -18.2311 0.995324 -5.105653E-7 6.2682 
 50 0.2675 0.993618 -7.106131E-7 5.1215 
 51 -1.6435 0.996575 -3.889211E-7 9.9755 
 52 3.7838 0.996636 -3.894951E-7 9.2111 
 53 -2.3697 0.994257 -6.782088E-7 6.2299 
 54 4.2042 0.994584 -6.521822E-7 6.0006 
 55 5.9242 0.992647 -9.029404E-7 4.2042 
 56 1.7199 0.998731 -1.588952E-7 9.6698 
 57 -18.8427 0.997565 -3.110017E-7 5.5037 
 58 0.2675 0.994354 -7.351254E-7 5.6184 
 59 -0.8408 0.998990 -1.340941E-7 6.8415 
 60 15.2882 0.994885 -6.924966E-7 12.9185 
 61 1.8728 0.996777 -4.449128E-7 7.6441 
 62 -18.6516 0.993781 -8.751417E-7 3.9749 
 63 -12.0777 0.994640 -7.690507E-7 5.3509 
 64 -10.3960 0.991362 -1.263372E-6 14.4473 
 65 -0.6880 0.992593 -1.104279E-6 5.8477 
 66 -6.4210 0.998156 -2.802353E-7 8.1792 
 67 -8.8671 0.994659 -8.273045E-7 6.0388 
 68 -4.6629 0.999836 -2.590887E-8 12.5745 
 69 -17.7725 0.995334 -7.506212E-7 8.9818 
 70 -1.3759 0.992691 -1.198281E-6 4.9304 
 71 -4.1660 0.995106 -8.176497E-7 10.8164 
 72 -0.6115 0.995888 -6.999916E-7 5.8095 
 73 2.9812 0.994272 -9.932925E-7 7.2619 
 74 -6.5357 0.992307 -1.359216E-6 11.6955 
 75 -0.0382 0.998205 -3.230126E-7 6.2682 
 76 6.0770 0.999798 -3.695260E-8 11.3515 
 77 -18.5751 0.991697 -1.550320E-6 13.2625 
 78 0.1911 0.992940 -1.342515E-6 6.7650 
 79 1.7964 0.990570 -1.825878E-6 10.9693 
 80 -0.5733 0.997528 -4.873837E-7 7.5294 
 81 1.2995 0.997449 -5.120289E-7 7.0708 
 82 2.5225 0.996171 -7.824456E-7 9.7462 
 83 -13.7211 0.993534 -1.345260E-6 7.3383 
 84 2.5990 0.998749 -2.648414E-7 12.5745 
 85 -19.1102 0.992221 -1.676713E-6 4.8540 
 86 -1.6817 0.997679 -5.090855E-7 7.7587 
 87 -19.4160 0.994834 -1.153230E-6 8.9436 
 88 0.4586 0.992731 -1.651067E-6 8.5996 
 89 -8.5996 0.992077 -1.831027E-6 7.5676 
 90 1.0320 0.995601 -1.034232E-6 8.7143 
 91 2.0639 0.995949 -9.688450E-7 6.5739 
 92 1.0320 0.993852 -1.495651E-6 8.1027 
 93 -16.5877 0.995787 -1.042446E-6 5.3509 
 94 1.1466 0.996120 -9.763169E-7 7.3383 
 95 2.7519 0.992094 -2.023047E-6 8.0645 
 96 -0.5733 0.990135 -2.566757E-6 4.4336 
 97 0.9173 0.989099 -2.883693E-6 8.2938 
 98 0.0764 0.996593 -9.162777E-7 6.4210 
 99 0.3058 0.996999 -8.204491E-7 7.0326 
100 -15.2500 0.995759 -1.178559E-6 7.3383 
101 1.1084 0.984699 -4.321355E-6 4.4336 
102 -15.5557 0.995905 -1.175322E-6 7.5676 
103 -10.5106 0.994207 -1.689600E-6 5.4655 
104 0.4204 0.995966 -1.195511E-6 5.6948 
105 -0.0764 0.996499 -1.054212E-6 7.1472 
106 -12.8421 0.991094 -2.724238E-6 5.8859 
107 3.0959 0.991408 -2.669663E-6 4.2042 
108 0.3440 0.995386 -1.456420E-6 10.2813 
109 -1.2995 0.996662 -1.069939E-6 11.8483 
110 1.2613 0.991429 -2.790244E-6 5.0069 
111 -18.4605 0.992644 -2.431777E-6 6.2299 
112 -0.6880 0.993409 -2.212409E-6 6.5739 
113 -13.1478 0.991818 -2.788710E-6 10.4342 
114 -0.1911 0.994063 -2.054489E-6 6.1153 
115 1.2231 0.996403 -1.263697E-6 6.2682 
116 -1.8728 0.993810 -2.207044E-6 5.4273 
117 1.2995 0.995640 -1.577946E-6 11.0839 
118 18.5369 0.995846 -1.525905E-6 8.1792 
119 19.0338 0.990768 -3.441451E-6 6.4210 
120 -0.4586 0.991639 -3.162561E-6 5.8477 
121 -0.7262 0.995856 -1.590662E-6 7.6441 
122 0.3440 0.991951 -3.134451E-6 6.6504 
123 1.6817 0.994474 -2.183076E-6 5.7331 
124 -18.1165 0.990069 -3.979829E-6 3.9749 
125 -19.0720 0.997666 -9.486675E-7 7.7205 
126 -18.6898 0.997566 -1.003625E-6 5.8477 
127 -0.2293 0.997559 -1.020891E-6 5.7713 
128 18.7280 0.993468 -2.770141E-6 6.6121 
129 4.9304 0.996621 -1.453217E-6 11.5808 
130 1.2995 0.997680 -1.011507E-6 6.8415 
131 -13.7594 0.994156 -2.583819E-6 6.6121 
132 -1.1848 0.997025 -1.333438E-6 8.6760 
133 18.4222 0.987239 -5.799092E-6 3.5927 
134 -10.3577 0.996988 -1.387488E-6 14.3327 
135 -19.1102 0.997171 -1.320757E-6 11.1604 
136 -19.1102 0.990191 -4.642189E-6 4.9687 
137 -18.8045 0.999586 -1.986089E-7 17.0081 
138 -0.9937 0.995001 -2.429852E-6 6.1535 
139 0.3440 0.997185 -1.386603E-6 10.3577 
140 0.6880 0.993507 -3.240816E-6 6.3446 
141 17.6578 0.997594 -1.216654E-6 5.8095 
142 0.5351 0.993190 -3.489031E-6 6.9179 
143 -19.0338 0.995639 -2.263366E-6 11.2368 
144 6.1153 0.996084 -2.058884E-6 6.3828 
145 -18.6898 0.995550 -2.370156E-6 6.4210 
146 -18.1929 0.990109 -5.335537E-6 3.3634 
147 6.8797 0.993938 -3.312082E-6 5.5037 
148 2.7901 0.991623 -4.635398E-6 7.1472 
149 6.3446 0.994831 -2.896554E-6 9.4787 
150 -18.0400 0.997802 -1.247166E-6 9.2493 
151 -2.3697 0.989500 -6.032935E-6 4.0514 
152 5.3891 0.998633 -7.951377E-7 29.9266 
153 -15.3264 0.995115 -2.876894E-6 5.5420 
154 -7.1472 0.996430 -2.128799E-6 4.4336 
155 -15.3646 1.001250  7.546238E-7 7.3765 
156 -14.4855 0.989097 -6.661868E-6 4.2807 
157 -10.8546 0.992756 -4.479962E-6 8.9436 
158 5.0833 0.999201 -5.003939E-7 6.2682 
159 -5.3891 0.995992 -2.539239E-6 10.7399 
160 -2.4079 0.995771 -2.711425E-6 7.7587 
161 -15.8997 0.996937 -1.987361E-6 7.1854 
162 -2.0639 0.994000 -3.939221E-6 4.6629 
163 2.2932 0.998083 -1.273595E-6 7.9881 
164 -2.9430 0.993219 -4.557995E-6 8.5996 
165 19.4542 0.995675 -2.941722E-6 5.2744 
166 1.2613 0.996030 -2.731361E-6 13.3389 
167 -10.0902 0.996672 -2.316234E-6 6.4593 
168 5.3891 0.992729 -5.119625E-6 6.1535 
169 2.2550 0.995299 -3.348331E-6 9.0582 
170 -19.1484 0.996692 -2.383465E-6 7.0708 
171 -1.5670 0.994251 -4.188820E-6 9.6315 
172 -13.5683 0.995217 -3.524661E-6 8.6760 
173 -10.8928 0.996084 -2.918341E-6 7.1854 
174 16.3583 0.994959 -3.799759E-6 4.0131 
175 0.7262 0.996379 -2.760040E-6 7.7205 
176 18.4222 0.994962 -3.882912E-6 8.6760 
177 -17.8872 0.991952 -6.271507E-6 6.8032 
178 -17.5432 0.987994 -9.459662E-6 3.3252 
179 6.0770 0.997420 -2.055132E-6 9.7844 
180 -0.2675 0.999070 -7.488026E-7 6.8797 
181 -12.6510 0.992916 -5.767550E-6 5.8477 
182 15.0206 0.994062 -4.886826E-6 13.7211 
183 14.7149 0.993080 -5.756476E-6 5.0069 
184 14.4091 0.997992 -1.688870E-6 11.3132 
185 2.4461 0.994184 -4.942764E-6 10.8546 
186 16.4348 0.988893 -9.541162E-6 4.5865 
187 -19.3778 0.994878 -4.446379E-6 6.7268 
188 16.6259 0.997688 -2.028789E-6 7.8352 
189 -1.6435 1.001039  9.213047E-7 15.0206 
190 0.4586 0.991681 -7.453211E-6 4.8540 
191 18.4222 0.996486 -3.181160E-6 13.4918 
192 0.1147 0.995613 -4.012605E-6 5.9242 
193 15.6704 0.998514 -1.373591E-6 12.0012 
194 -1.9110 0.991429 -8.003335E-6 6.0006 
195 1.5670 0.996318 -3.473651E-6 18.9573 
196 -0.6497 0.992897 -6.769841E-6 8.0645 
197 -2.1786 0.995373 -4.455297E-6 6.4593 
198 -18.9191 0.996949 -2.967763E-6 6.0006 
199 13.4154 0.994312 -5.588028E-6 10.7017 
200 1.7199 0.998618 -1.371719E-6 12.7274 
201 7.4530 0.994825 -5.187436E-6 8.3703 
202 -2.4079 0.995871 -4.180002E-6 7.2619 
203 -19.1867 0.997123 -2.941353E-6 13.4154 
204 2.1021 0.995772 -4.365816E-6 5.8859 
205 -0.8408 0.996145 -4.019709E-6 6.0770 
206 -2.2550 0.991294 -9.168696E-6 7.7970 
207 -0.0382 0.991486 -9.053993E-6 5.1980 
208 -10.9693 0.994805 -5.578882E-6 7.9498 
209 -18.7662 0.995238 -5.163186E-6 8.0645 
210 -6.4210 0.992265 -8.467995E-6 4.0896 
211 -18.6516 0.993972 -6.663021E-6 14.6384 
212 -16.3966 0.994381 -6.270901E-6 3.9367 
213 -10.8928 0.996404 -4.050976E-6 13.6065 
214 -18.8809 0.995083 -5.592992E-6 5.2362 
215 -1.8728 0.989723 -1.180046E-5 4.5482 
216 -0.6115 0.992143 -9.106715E-6 5.3891 
217 -0.2675 0.995571 -5.181950E-6 6.6886 
218 4.5100 0.996754 -3.834038E-6 7.3765 
219 5.5802 0.996767 -3.854515E-6 10.3960 
220 4.5865 0.987344 -1.522774E-5 4.2425 
221 -0.4204 0.993974 -7.317331E-6 5.5420 
222 -0.9173 0.994207 -7.099480E-6 5.9242 
223 10.3577 0.991505 -1.050745E-5 5.4273 
224 -4.7011 0.995243 -5.937771E-6 9.6315 
225 3.8220 0.999228 -9.727968E-7 10.0520 
226 15.5175 0.995842 -5.285809E-6 10.0138 
227 7.6059 0.990876 -1.170402E-5 5.4273 
228 -4.3189 0.994690 -6.873649E-6 8.4849 
229 8.3321 0.997416 -3.375387E-6 6.0388 
230 -18.1165 0.993205 -8.954004E-6 5.1980 
231 7.6823 0.991635 -1.112230E-5 4.2807 
232 0.4969 0.999626 -5.020289E-7 6.4975 
233 2.9048 0.991794 -1.110591E-5 9.7462 
234 -0.9937 1.005771  7.879292E-6 7.9498 
235 16.0526 0.999318 -9.398775E-7 6.0388 
236 -0.3440 0.999803 -2.732756E-7 5.9242 
237 1.2613 0.992038 -1.116031E-5 5.3126 
238 7.6823 0.993485 -9.212301E-6 5.0833 
239 -4.4718 0.994730 -7.517016E-6 5.7331 
240 17.3139 0.993029 -1.002880E-5 8.5996 
241 -0.5733 0.995511 -6.514688E-6 6.9179 
242 5.3126 0.998579 -2.079887E-6 6.7650 
243 0.7644 0.992532 -1.102433E-5 6.3446 
244 -18.5751 0.996324 -5.472841E-6 9.5551 
245 -6.4210 0.991798 -1.231508E-5 4.8922 
246 -2.7519 0.990936 -1.372573E-5 12.0777 
247 1.1848 0.991727 -1.263362E-5 5.3126 
248 17.4667 0.995908 -6.301082E-6 5.9624 
249 1.0702 0.993102 -1.071255E-5 5.0451 
250 5.5037 0.995965 -6.318615E-6 7.8352 
251 -0.9173 0.996026 -6.275109E-6 12.3452 
252 6.6886 0.992100 -1.257869E-5 6.6886 
253 -1.1466 0.997411 -4.156404E-6 11.1221 
254 16.0908 0.996301 -5.987090E-6 6.4210 
255 3.0576 0.993147 -1.118424E-5 4.8158 
256 2.5608 0.995156 -7.969827E-6 5.3509 
257 1.8346 0.992189 -1.295762E-5 11.6955 
258 -19.4160 0.991200 -1.471802E-5 4.4336 
259 13.0332 0.992408 -1.280108E-5 5.8095 
260 0.6880 0.990457 -1.622007E-5 5.3509 
261 -8.2556 0.995587 -7.561922E-6 6.8797 
262 -3.0194 0.994452 -9.583740E-6 6.1535 
263 -17.9636 0.996160 -6.686356E-6 4.6247 
264 -7.9116 0.999042 -1.681688E-6 17.2374 
265 19.4542 0.999942 -1.026936E-7 7.3383 
266 -16.0144 0.986599 -2.389581E-5 4.2425 
267 -2.1786 0.996210 -6.811059E-6 10.3577 
268 19.1867 0.998092 -3.456070E-6 8.8289 
269 -0.4586 0.991940 -1.471505E-5 6.4593 
270 0.5351 1.002473  4.549922E-6 19.9893 
271 0.3440 0.996460 -6.564270E-6 7.3765 
272 -19.5689 1.001526  2.852449E-6 7.3765 
273 -12.3834 0.990843 -1.724693E-5 6.7268 
274 0.3058 0.994710 -1.004112E-5 9.0200 
275 -17.5814 0.991100 -1.702407E-5 4.2425 
276 11.0457 1.000746  1.438940E-6 13.8358 
277 -3.4781 0.993098 -1.340560E-5 8.1792 
278 0.0382 0.995569 -8.671754E-6 14.0651 
279 0.3822 0.993442 -1.293482E-5 6.0770 
280 1.7581 0.990382 -1.911341E-5 7.3765 
281 -1.2613 1.000745  1.491855E-6 7.3383 
282 -13.0332 1.001598  3.223850E-6 17.6578 
283 -1.2231 0.998827 -2.384434E-6 6.9943 
284 -1.6817 0.996461 -7.247568E-6 7.2619 
285 -19.4924 0.991059 -1.844798E-5 3.9749 
286 0.6880 1.000056  1.163439E-7 9.6698 
287 15.0971 0.994489 -1.154120E-5 7.1472 
288 -0.8408 0.994088 -1.247427E-5 4.9687 
289 -1.7964 0.993617 -1.356656E-5 10.3577 
290 -0.2293 0.992468 -1.612794E-5 5.4655 
291 -15.6322 0.998967 -2.229014E-6 16.3966 
292 -17.9636 0.993745 -1.359134E-5 8.4085 
293 -0.3440 0.996480 -7.704695E-6 12.7274 
294 7.5294 0.995946 -8.937764E-6 7.3765 
295 4.7393 0.992931 -1.569978E-5 9.1347 
296 4.8922 0.994325 -1.269437E-5 6.5739 
297 6.5357 0.994407 -1.260273E-5 6.2299 
298 -6.4975 0.998822 -2.674517E-6 9.5551 
299 18.9956 0.995179 -1.101956E-5 7.1854 
300 -18.8809 0.999912 -2.014562E-7 9.2111 
301 -3.6692 0.989593 -2.413142E-5 6.2299 
302 3.4016 0.990224 -2.282954E-5 4.3571 
303 -0.4969 0.991356 -2.033076E-5 5.5802 
304 7.6059 0.996475 -8.350220E-6 13.4918 
305 -10.7399 0.993147 -1.634785E-5 4.6629 
306 4.3189 0.998817 -2.842987E-6 8.8289 
307 0.1147 1.000045  1.088871E-7 18.0400 
308 13.3771 0.991859 -1.983288E-5 4.5865 
309 -17.5432 0.989594 -2.552899E-5 4.6629 
310 -1.4524 0.993105 -1.703371E-5 21.7856 
311 -0.8026 0.997002 -7.456729E-6 16.3966 
312 -7.1854 0.995893 -1.028835E-5 7.5294 
313 -1.7964 0.991939 -2.033044E-5 4.6629 
314 5.0833 0.996991 -7.641766E-6 13.2243 
315 7.8734 0.995192 -1.229326E-5 4.8540 
316 -9.6315 0.996558 -8.861836E-6 13.1096 
317 -0.1147 0.993196 -1.763855E-5 7.2237 
318 7.3765 0.998548 -3.790634E-6 6.6504 
319 2.4843 0.991014 -2.361384E-5 9.8609 
320 -8.8671 0.994983 -1.327329E-5 5.6184 
321 -10.5488 0.994539 -1.454540E-5 5.3509 
322 0.3822 0.999422 -1.550912E-6 6.5357 
323 -0.6115 0.990577 -2.544028E-5 10.8164 
324 -13.1478 0.999722 -7.545655E-7 8.2174 
325 1.2613 0.989703 -2.817424E-5 4.4336 
326 7.7970 0.992150 -2.162204E-5 6.6121 
327 1.3759 0.994618 -1.492174E-5 7.3001 
328 -0.1911 1.001427  3.982953E-6 14.1416 
329 5.1980 0.997237 -7.762366E-6 9.3640 
330 -15.8615 0.995892 -1.161936E-5 5.8477 
331 3.9749 0.993956 -1.720857E-5 7.6823 
332 -18.0783 0.991755 -2.362865E-5 10.3577 
4.00676389   0.00  90.00 -0.01 -0.40
  0 -0.0764 1.059986  3.378170E-6 0.0382 
  1 -2.7137 0.964088 -2.025270E-6 0.0382 
  2 16.3201 1.042848  2.421509E-6 1.8346 
  3 0.1911 1.112626  6.383008E-6 6.1535 
  4 -0.4586 1.129857  7.385596E-6 5.9242 
  5 -0.7644 1.158485  9.051988E-6 6.0006 
  6 -0.1147 1.222641  1.277903E-5 6.1153 
  7 0.5733 1.328947  1.898675E-5 6.0770 
  8 0.2293 1.879187  5.106594E-5 6.4975 
  9 0.3058 4.900268  2.281162E-4 6.0006 
 10 0.3058 5.787756  2.821544E-4 5.8859 
 11 0.0382 2.579475  9.385048E-5 7.3001 
 12 0.3058 1.288141  1.727300E-5 6.5357 
 13 0.3440 3.769289  1.675835E-4 5.9624 
 14 0.3822 5.132772  2.526160E-4 5.8477 
 15 0.2675 2.875403  1.158560E-4 6.4593 
 16 0.2675 1.036317  2.268714E-6 7.0326 
 17 0.3822 1.041787  2.641106E-6 5.9624 
 18 0.4204 1.044151  2.824835E-6 5.6948 
 19 0.1147 1.005152  3.338265E-7 5.8095 
 20 -0.0764 1.006677  4.384200E-7 7.8734 
 21 0.1911 1.001116  7.431117E-8 6.7268 
 22 0.0000 0.996355 -2.460654E-7 5.2362 
 23 -0.2293 1.003844  2.632778E-7 6.8032 
 24 -0.4969 1.000059  4.074116E-9 6.1917 
 25 0.5351 1.010841  7.652771E-7 7.2237 
 26 0.8791 1.092891  6.660510E-6 5.8477 
 27 0.9555 1.040692  2.964733E-6 6.4593 
 28 0.9555 0.999223 -5.751390E-8 4.1278 
 29 0.3440 1.026021  1.959253E-6 6.5739 
 30 0.4204 1.195212  1.494917E-5 5.8859 
 31 0.4586 1.232247  1.809331E-5 5.9624 
 32 0.6497 1.073725  5.844537E-6 6.3446 
 33 1.4524 1.001167  9.415013E-8 6.8032 
 34 -18.8427 0.996687 -2.721275E-7 5.2362 
 35 10.5488 0.999574 -3.566468E-8 16.2055 
 36 14.1033 0.999108 -7.594285E-8 22.9705 
 37 3.1341 0.992776 -6.267726E-7 3.4781 
 38 -7.1090 0.999367 -5.591153E-8 6.6121 
 39 -3.9749 0.995277 -4.253749E-7 4.2807 
 40 15.5557 0.991604 -7.705478E-7 4.0514 
 41 -10.6635 0.994040 -5.575003E-7 4.0514 
 42 -9.0582 0.992955 -6.716863E-7 4.3953 
 43 3.8603 1.000475  4.618480E-8 15.5175 
 44 19.1484 0.994844 -5.108260E-7 3.5927 
 45 -17.9254 0.997201 -2.827272E-7 18.1165 
 46 -17.3903 0.995803 -4.322240E-7 4.5865 
 47 -18.5751 0.989867 -1.064098E-6 4.3953 
 48 0.9937 0.994590 -5.792851E-7 5.4273 
 49 3.4398 0.991952 -8.787463E-7 4.9304 
 50 -6.2299 0.995655 -4.838262E-7 4.3953 
 51 6.8032 0.990918 -1.031298E-6 4.8922 
 52 1.3377 0.995264 -5.484242E-7 18.2694 
 53 -18.8427 0.994583 -6.397017E-7 5.1980 
 54 -7.2237 0.988916 -1.334793E-6 7.0708 
 55 -14.6766 0.987858 -1.491069E-6 1.9492 
 56 -6.9561 0.997586 -3.023582E-7 8.2174 
 57 18.3458 0.992648 -9.388272E-7 9.1729 
 58 4.2425 0.993738 -8.153619E-7 4.9304 
 59 5.4273 0.996951 -4.047753E-7 7.2619 
 60 13.8358 0.992817 -9.723620E-7 5.8477 
 61 10.7782 0.990830 -1.265698E-6 6.6886 
 62 12.3452 0.993323 -9.396445E-7 9.7080 
 63 12.9185 0.996654 -4.800760E-7 6.1917 
 64 12.9567 0.999386 -8.983317E-8 9.4787 
 65 3.8603 0.991090 -1.328467E-6 6.5739 
 66 4.5865 0.993705 -9.566217E-7 8.8289 
 67 6.6504 0.991967 -1.244313E-6 4.3953 
 68 -13.4154 0.999515 -7.654091E-8 9.6315 
 69 5.8859 0.990283 -1.563348E-6 5.3126 
 70 -19.1867 1.000464  7.614588E-8 11.8483 
 71 -9.1347 0.988521 -1.917715E-6 1.6817 
 72 4.9687 0.999083 -1.560466E-7 7.7587 
 73 12.5745 0.994230 -1.000575E-6 5.0833 
 74 12.2688 0.993991 -1.061580E-6 4.8922 
 75 -18.9191 0.996642 -6.043261E-7 6.3446 
 76 13.7594 0.995919 -7.481621E-7 5.9242 
 77 -19.2249 0.991911 -1.510211E-6 6.1917 
 78 4.7393 0.998731 -2.413182E-7 10.0520 
 79 4.3953 1.001299  2.514464E-7 8.3321 
 80 0.0382 0.997192 -5.536563E-7 4.9687 
 81 -17.7343 1.003312  6.648798E-7 16.3966 
 82 13.6829 0.997286 -5.546227E-7 5.7713 
 83 15.2117 0.997684 -4.818225E-7 17.2756 
 84 12.3070 0.998104 -4.015123E-7 12.6127 
 85 3.0576 0.991351 -1.864270E-6 13.3389 
 86 4.9687 0.996528 -7.616670E-7 8.0263 
 87 18.0400 0.997950 -4.575097E-7 6.9943 
 88 7.4148 0.991966 -1.824857E-6 11.5043 
 89 17.6578 0.994198 -1.340882E-6 5.8477 
 90 5.8859 0.997536 -5.792424E-7 7.4148 
 91 19.1102 0.990950 -2.164538E-6 16.0144 
 92 3.5545 0.999488 -1.246015E-7 14.2180 
 93 10.8928 0.992784 -1.785341E-6 4.0514 
 94 4.6247 0.990021 -2.511028E-6 7.4530 
 95 19.3778 0.990649 -2.392695E-6 5.9624 
 96 1.7964 0.994005 -1.559835E-6 5.1598 
 97 -19.5306 0.994397 -1.482183E-6 9.4022 
 98 2.4843 0.995768 -1.138056E-6 7.5676 
 99 12.3452 0.996452 -9.700598E-7 5.8859 
100 15.6704 0.994064 -1.649423E-6 14.7149 
101 -0.9555 0.990660 -2.637819E-6 5.1980 
102 -6.6121 0.990443 -2.742986E-6 3.2105 
103 5.0451 1.001375  4.011271E-7 6.6504 
104 5.5037 0.996087 -1.159578E-6 5.8859 
105 9.1729 0.994563 -1.636955E-6 21.2888 
106 -16.5877 0.994170 -1.783385E-6 7.1090 
107 12.4599 0.995921 -1.267582E-6 18.7662 
108 -7.2619 0.992754 -2.286885E-6 5.7713 
109 -9.5933 0.995299 -1.507030E-6 4.0514 
110 4.6629 0.992412 -2.470251E-6 6.5357 
111 -16.4348 0.999067 -3.083490E-7 22.6647 
112 9.4022 0.995636 -1.464944E-6 7.4912 
113 -17.9254 0.990451 -3.254726E-6 4.6629 
114 0.3058 0.992980 -2.429262E-6 7.9498 
